node, X coordinate (m), Y coordinate (m), Z coordinate (m), Liquid Pressure (MPa), Temperature (deg C), X Permeability (log m**2), Y Permeability (log m**2), Z Permeability (log m**2)
0000000001,   0.00000000 ,   0.00000000 ,   0.00000000 ,   10.6399514 ,   100.006350 ,  -15.0000000 ,  -15.0000000 ,  -15.0000000
0000000002,   1.00000000 ,   0.00000000 ,   0.00000000 ,   10.6300188 ,   100.006351 ,  -15.0000000 ,  -15.0000000 ,  -15.0000000
0000000003,   2.00000000 ,   0.00000000 ,   0.00000000 ,   10.6201743 ,   100.006254 ,  -15.0000000 ,  -15.0000000 ,  -15.0000000
0000000004,   3.00000000 ,   0.00000000 ,   0.00000000 ,   10.6104180 ,   100.006156 ,  -15.0000000 ,  -15.0000000 ,  -15.0000000
0000000005,   4.00000000 ,   0.00000000 ,   0.00000000 ,   10.6007507 ,   100.006059 ,  -15.0000000 ,  -15.0000000 ,  -15.0000000
0000000006,   5.00000000 ,   0.00000000 ,   0.00000000 ,   10.5911723 ,   100.005962 ,  -15.0000000 ,  -15.0000000 ,  -15.0000000
0000000007,   6.00000000 ,   0.00000000 ,   0.00000000 ,   10.5816818 ,   100.005866 ,  -15.0000000 ,  -15.0000000 ,  -15.0000000
0000000008,   7.00000000 ,   0.00000000 ,   0.00000000 ,   10.5722793 ,   100.005772 ,  -15.0000000 ,  -15.0000000 ,  -15.0000000
0000000009,   8.00000000 ,   0.00000000 ,   0.00000000 ,   10.5629651 ,   100.005678 ,  -15.0000000 ,  -15.0000000 ,  -15.0000000
0000000010,   9.00000000 ,   0.00000000 ,   0.00000000 ,   10.5537386 ,   100.005585 ,  -15.0000000 ,  -15.0000000 ,  -15.0000000
0000000011,   10.0000000 ,   0.00000000 ,   0.00000000 ,   10.5445996 ,   100.005493 ,  -15.0000000 ,  -15.0000000 ,  -15.0000000
0000000012,   11.0000000 ,   0.00000000 ,   0.00000000 ,   10.5355488 ,   100.005402 ,  -15.0000000 ,  -15.0000000 ,  -15.0000000
0000000013,   12.0000000 ,   0.00000000 ,   0.00000000 ,   10.5265856 ,   100.005311 ,  -15.0000000 ,  -15.0000000 ,  -15.0000000
0000000014,   13.0000000 ,   0.00000000 ,   0.00000000 ,   10.5177089 ,   100.005222 ,  -15.0000000 ,  -15.0000000 ,  -15.0000000
0000000015,   14.0000000 ,   0.00000000 ,   0.00000000 ,   10.5089183 ,   100.005133 ,  -15.0000000 ,  -15.0000000 ,  -15.0000000
0000000016,   15.0000000 ,   0.00000000 ,   0.00000000 ,   10.5002144 ,   100.005045 ,  -15.0000000 ,  -15.0000000 ,  -15.0000000
0000000017,   16.0000000 ,   0.00000000 ,   0.00000000 ,   10.4915967 ,   100.004959 ,  -15.0000000 ,  -15.0000000 ,  -15.0000000
0000000018,   17.0000000 ,   0.00000000 ,   0.00000000 ,   10.4830648 ,   100.004873 ,  -15.0000000 ,  -15.0000000 ,  -15.0000000
0000000019,   18.0000000 ,   0.00000000 ,   0.00000000 ,   10.4746185 ,   100.004787 ,  -15.0000000 ,  -15.0000000 ,  -15.0000000
0000000020,   19.0000000 ,   0.00000000 ,   0.00000000 ,   10.4662575 ,   100.004703 ,  -15.0000000 ,  -15.0000000 ,  -15.0000000
0000000021,   20.0000000 ,   0.00000000 ,   0.00000000 ,   10.4579815 ,   100.004620 ,  -15.0000000 ,  -15.0000000 ,  -15.0000000
0000000022,   21.0000000 ,   0.00000000 ,   0.00000000 ,   10.4497898 ,   100.004537 ,  -15.0000000 ,  -15.0000000 ,  -15.0000000
0000000023,   22.0000000 ,   0.00000000 ,   0.00000000 ,   10.4416818 ,   100.004455 ,  -15.0000000 ,  -15.0000000 ,  -15.0000000
0000000024,   23.0000000 ,   0.00000000 ,   0.00000000 ,   10.4336569 ,   100.004375 ,  -15.0000000 ,  -15.0000000 ,  -15.0000000
0000000025,   24.0000000 ,   0.00000000 ,   0.00000000 ,   10.4257146 ,   100.004294 ,  -15.0000000 ,  -15.0000000 ,  -15.0000000
0000000026,   25.0000000 ,   0.00000000 ,   0.00000000 ,   10.4178551 ,   100.004215 ,  -15.0000000 ,  -15.0000000 ,  -15.0000000
0000000027,   26.0000000 ,   0.00000000 ,   0.00000000 ,   10.4100785 ,   100.004137 ,  -15.0000000 ,  -15.0000000 ,  -15.0000000
0000000028,   27.0000000 ,   0.00000000 ,   0.00000000 ,   10.4023845 ,   100.004059 ,  -15.0000000 ,  -15.0000000 ,  -15.0000000
0000000029,   28.0000000 ,   0.00000000 ,   0.00000000 ,   10.3947724 ,   100.003983 ,  -15.0000000 ,  -15.0000000 ,  -15.0000000
0000000030,   29.0000000 ,   0.00000000 ,   0.00000000 ,   10.3872410 ,   100.003907 ,  -15.0000000 ,  -15.0000000 ,  -15.0000000
0000000031,   30.0000000 ,   0.00000000 ,   0.00000000 ,   10.3797896 ,   100.003831 ,  -15.0000000 ,  -15.0000000 ,  -15.0000000
0000000032,   31.0000000 ,   0.00000000 ,   0.00000000 ,   10.3724173 ,   100.003757 ,  -15.0000000 ,  -15.0000000 ,  -15.0000000
0000000033,   32.0000000 ,   0.00000000 ,   0.00000000 ,   10.3651238 ,   100.003684 ,  -15.0000000 ,  -15.0000000 ,  -15.0000000
0000000034,   33.0000000 ,   0.00000000 ,   0.00000000 ,   10.3579083 ,   100.003611 ,  -15.0000000 ,  -15.0000000 ,  -15.0000000
0000000035,   34.0000000 ,   0.00000000 ,   0.00000000 ,   10.3507700 ,   100.003539 ,  -15.0000000 ,  -15.0000000 ,  -15.0000000
0000000036,   35.0000000 ,   0.00000000 ,   0.00000000 ,   10.3437079 ,   100.003468 ,  -15.0000000 ,  -15.0000000 ,  -15.0000000
0000000037,   36.0000000 ,   0.00000000 ,   0.00000000 ,   10.3367212 ,   100.003397 ,  -15.0000000 ,  -15.0000000 ,  -15.0000000
0000000038,   37.0000000 ,   0.00000000 ,   0.00000000 ,   10.3298087 ,   100.003327 ,  -15.0000000 ,  -15.0000000 ,  -15.0000000
0000000039,   38.0000000 ,   0.00000000 ,   0.00000000 ,   10.3229698 ,   100.003259 ,  -15.0000000 ,  -15.0000000 ,  -15.0000000
0000000040,   39.0000000 ,   0.00000000 ,   0.00000000 ,   10.3162034 ,   100.003190 ,  -15.0000000 ,  -15.0000000 ,  -15.0000000
0000000041,   40.0000000 ,   0.00000000 ,   0.00000000 ,   10.3095088 ,   100.003123 ,  -15.0000000 ,  -15.0000000 ,  -15.0000000
0000000042,   41.0000000 ,   0.00000000 ,   0.00000000 ,   10.3028852 ,   100.003056 ,  -15.0000000 ,  -15.0000000 ,  -15.0000000
0000000043,   42.0000000 ,   0.00000000 ,   0.00000000 ,   10.2963316 ,   100.002990 ,  -15.0000000 ,  -15.0000000 ,  -15.0000000
0000000044,   43.0000000 ,   0.00000000 ,   0.00000000 ,   10.2898475 ,   100.002924 ,  -15.0000000 ,  -15.0000000 ,  -15.0000000
0000000045,   44.0000000 ,   0.00000000 ,   0.00000000 ,   10.2834320 ,   100.002860 ,  -15.0000000 ,  -15.0000000 ,  -15.0000000
0000000046,   45.0000000 ,   0.00000000 ,   0.00000000 ,   10.2770842 ,   100.002796 ,  -15.0000000 ,  -15.0000000 ,  -15.0000000
0000000047,   46.0000000 ,   0.00000000 ,   0.00000000 ,   10.2708030 ,   100.002732 ,  -15.0000000 ,  -15.0000000 ,  -15.0000000
0000000048,   47.0000000 ,   0.00000000 ,   0.00000000 ,   10.2645874 ,   100.002670 ,  -15.0000000 ,  -15.0000000 ,  -15.0000000
0000000049,   48.0000000 ,   0.00000000 ,   0.00000000 ,   10.2584360 ,   100.002608 ,  -15.0000000 ,  -15.0000000 ,  -15.0000000
0000000050,   49.0000000 ,   0.00000000 ,   0.00000000 ,   10.2523479 ,   100.002546 ,  -15.0000000 ,  -15.0000000 ,  -15.0000000
0000000051,   50.0000000 ,   0.00000000 ,   0.00000000 ,   10.2463222 ,   100.002485 ,  -15.0000000 ,  -15.0000000 ,  -15.0000000
0000000052,   51.0000000 ,   0.00000000 ,   0.00000000 ,   10.2403580 ,   100.002425 ,  -15.0000000 ,  -15.0000000 ,  -15.0000000
0000000053,   52.0000000 ,   0.00000000 ,   0.00000000 ,   10.2344545 ,   100.002366 ,  -15.0000000 ,  -15.0000000 ,  -15.0000000
0000000054,   53.0000000 ,   0.00000000 ,   0.00000000 ,   10.2286107 ,   100.002307 ,  -15.0000000 ,  -15.0000000 ,  -15.0000000
0000000055,   54.0000000 ,   0.00000000 ,   0.00000000 ,   10.2228257 ,   100.002248 ,  -15.0000000 ,  -15.0000000 ,  -15.0000000
0000000056,   55.0000000 ,   0.00000000 ,   0.00000000 ,   10.2170986 ,   100.002191 ,  -15.0000000 ,  -15.0000000 ,  -15.0000000
0000000057,   56.0000000 ,   0.00000000 ,   0.00000000 ,   10.2114280 ,   100.002134 ,  -15.0000000 ,  -15.0000000 ,  -15.0000000
0000000058,   57.0000000 ,   0.00000000 ,   0.00000000 ,   10.2058131 ,   100.002077 ,  -15.0000000 ,  -15.0000000 ,  -15.0000000
0000000059,   58.0000000 ,   0.00000000 ,   0.00000000 ,   10.2002524 ,   100.002021 ,  -15.0000000 ,  -15.0000000 ,  -15.0000000
0000000060,   59.0000000 ,   0.00000000 ,   0.00000000 ,   10.1947450 ,   100.001965 ,  -15.0000000 ,  -15.0000000 ,  -15.0000000
0000000061,   60.0000000 ,   0.00000000 ,   0.00000000 ,   10.1892896 ,   100.001910 ,  -15.0000000 ,  -15.0000000 ,  -15.0000000
0000000062,   61.0000000 ,   0.00000000 ,   0.00000000 ,   10.1838852 ,   100.001856 ,  -15.0000000 ,  -15.0000000 ,  -15.0000000
0000000063,   62.0000000 ,   0.00000000 ,   0.00000000 ,   10.1785306 ,   100.001802 ,  -15.0000000 ,  -15.0000000 ,  -15.0000000
0000000064,   63.0000000 ,   0.00000000 ,   0.00000000 ,   10.1732248 ,   100.001748 ,  -15.0000000 ,  -15.0000000 ,  -15.0000000
0000000065,   64.0000000 ,   0.00000000 ,   0.00000000 ,   10.1679667 ,   100.001695 ,  -15.0000000 ,  -15.0000000 ,  -15.0000000
0000000066,   65.0000000 ,   0.00000000 ,   0.00000000 ,   10.1627551 ,   100.001643 ,  -15.0000000 ,  -15.0000000 ,  -15.0000000
0000000067,   66.0000000 ,   0.00000000 ,   0.00000000 ,   10.1575889 ,   100.001590 ,  -15.0000000 ,  -15.0000000 ,  -15.0000000
0000000068,   67.0000000 ,   0.00000000 ,   0.00000000 ,   10.1524669 ,   100.001539 ,  -15.0000000 ,  -15.0000000 ,  -15.0000000
0000000069,   68.0000000 ,   0.00000000 ,   0.00000000 ,   10.1473878 ,   100.001487 ,  -15.0000000 ,  -15.0000000 ,  -15.0000000
0000000070,   69.0000000 ,   0.00000000 ,   0.00000000 ,   10.1423503 ,   100.001437 ,  -15.0000000 ,  -15.0000000 ,  -15.0000000
0000000071,   70.0000000 ,   0.00000000 ,   0.00000000 ,   10.1373534 ,   100.001386 ,  -15.0000000 ,  -15.0000000 ,  -15.0000000
0000000072,   71.0000000 ,   0.00000000 ,   0.00000000 ,   10.1323956 ,   100.001336 ,  -15.0000000 ,  -15.0000000 ,  -15.0000000
0000000073,   72.0000000 ,   0.00000000 ,   0.00000000 ,   10.1274757 ,   100.001287 ,  -15.0000000 ,  -15.0000000 ,  -15.0000000
0000000074,   73.0000000 ,   0.00000000 ,   0.00000000 ,   10.1225925 ,   100.001237 ,  -15.0000000 ,  -15.0000000 ,  -15.0000000
0000000075,   74.0000000 ,   0.00000000 ,   0.00000000 ,   10.1177448 ,   100.001188 ,  -15.0000000 ,  -15.0000000 ,  -15.0000000
0000000076,   75.0000000 ,   0.00000000 ,   0.00000000 ,   10.1129311 ,   100.001140 ,  -15.0000000 ,  -15.0000000 ,  -15.0000000
0000000077,   76.0000000 ,   0.00000000 ,   0.00000000 ,   10.1081504 ,   100.001092 ,  -15.0000000 ,  -15.0000000 ,  -15.0000000
0000000078,   77.0000000 ,   0.00000000 ,   0.00000000 ,   10.1034015 ,   100.001044 ,  -15.0000000 ,  -15.0000000 ,  -15.0000000
0000000079,   78.0000000 ,   0.00000000 ,   0.00000000 ,   10.0986832 ,   100.000996 ,  -15.0000000 ,  -15.0000000 ,  -15.0000000
0000000080,   79.0000000 ,   0.00000000 ,   0.00000000 ,   10.0939943 ,   100.000949 ,  -15.0000000 ,  -15.0000000 ,  -15.0000000
0000000081,   80.0000000 ,   0.00000000 ,   0.00000000 ,   10.0893336 ,   100.000902 ,  -15.0000000 ,  -15.0000000 ,  -15.0000000
0000000082,   81.0000000 ,   0.00000000 ,   0.00000000 ,   10.0846998 ,   100.000855 ,  -15.0000000 ,  -15.0000000 ,  -15.0000000
0000000083,   82.0000000 ,   0.00000000 ,   0.00000000 ,   10.0800917 ,   100.000809 ,  -15.0000000 ,  -15.0000000 ,  -15.0000000
0000000084,   83.0000000 ,   0.00000000 ,   0.00000000 ,   10.0755079 ,   100.000762 ,  -15.0000000 ,  -15.0000000 ,  -15.0000000
0000000085,   84.0000000 ,   0.00000000 ,   0.00000000 ,   10.0709472 ,   100.000716 ,  -15.0000000 ,  -15.0000000 ,  -15.0000000
0000000086,   85.0000000 ,   0.00000000 ,   0.00000000 ,   10.0664082 ,   100.000670 ,  -15.0000000 ,  -15.0000000 ,  -15.0000000
0000000087,   86.0000000 ,   0.00000000 ,   0.00000000 ,   10.0618895 ,   100.000625 ,  -15.0000000 ,  -15.0000000 ,  -15.0000000
0000000088,   87.0000000 ,   0.00000000 ,   0.00000000 ,   10.0573898 ,   100.000579 ,  -15.0000000 ,  -15.0000000 ,  -15.0000000
0000000089,   88.0000000 ,   0.00000000 ,   0.00000000 ,   10.0529076 ,   100.000534 ,  -15.0000000 ,  -15.0000000 ,  -15.0000000
0000000090,   89.0000000 ,   0.00000000 ,   0.00000000 ,   10.0484418 ,   100.000489 ,  -15.0000000 ,  -15.0000000 ,  -15.0000000
0000000091,   90.0000000 ,   0.00000000 ,   0.00000000 ,   10.0439908 ,   100.000444 ,  -15.0000000 ,  -15.0000000 ,  -15.0000000
0000000092,   91.0000000 ,   0.00000000 ,   0.00000000 ,   10.0395533 ,   100.000399 ,  -15.0000000 ,  -15.0000000 ,  -15.0000000
0000000093,   92.0000000 ,   0.00000000 ,   0.00000000 ,   10.0351279 ,   100.000355 ,  -15.0000000 ,  -15.0000000 ,  -15.0000000
0000000094,   93.0000000 ,   0.00000000 ,   0.00000000 ,   10.0307133 ,   100.000310 ,  -15.0000000 ,  -15.0000000 ,  -15.0000000
0000000095,   94.0000000 ,   0.00000000 ,   0.00000000 ,   10.0263081 ,   100.000266 ,  -15.0000000 ,  -15.0000000 ,  -15.0000000
0000000096,   95.0000000 ,   0.00000000 ,   0.00000000 ,   10.0219110 ,   100.000221 ,  -15.0000000 ,  -15.0000000 ,  -15.0000000
0000000097,   96.0000000 ,   0.00000000 ,   0.00000000 ,   10.0175206 ,   100.000177 ,  -15.0000000 ,  -15.0000000 ,  -15.0000000
0000000098,   97.0000000 ,   0.00000000 ,   0.00000000 ,   10.0131357 ,   100.000133 ,  -15.0000000 ,  -15.0000000 ,  -15.0000000
0000000099,   98.0000000 ,   0.00000000 ,   0.00000000 ,   10.0087548 ,   100.000089 ,  -15.0000000 ,  -15.0000000 ,  -15.0000000
0000000100,   99.0000000 ,   0.00000000 ,   0.00000000 ,   10.0043767 ,   100.000045 ,  -15.0000000 ,  -15.0000000 ,  -15.0000000
0000000101,   100.000000 ,   0.00000000 ,   0.00000000 ,   10.0000000 ,   100.000003 ,  -15.0000000 ,  -15.0000000 ,  -15.0000000
0000000102,   0.00000000 ,   1.00000000 ,   0.00000000 ,   10.6399500 ,   100.006350 ,  -15.0000000 ,  -15.0000000 ,  -15.0000000
0000000103,   1.00000000 ,   1.00000000 ,   0.00000000 ,   10.6300186 ,   100.006351 ,  -15.0000000 ,  -15.0000000 ,  -15.0000000
0000000104,   2.00000000 ,   1.00000000 ,   0.00000000 ,   10.6201748 ,   100.006254 ,  -15.0000000 ,  -15.0000000 ,  -15.0000000
0000000105,   3.00000000 ,   1.00000000 ,   0.00000000 ,   10.6104185 ,   100.006156 ,  -15.0000000 ,  -15.0000000 ,  -15.0000000
0000000106,   4.00000000 ,   1.00000000 ,   0.00000000 ,   10.6007505 ,   100.006059 ,  -15.0000000 ,  -15.0000000 ,  -15.0000000
0000000107,   5.00000000 ,   1.00000000 ,   0.00000000 ,   10.5911716 ,   100.005962 ,  -15.0000000 ,  -15.0000000 ,  -15.0000000
0000000108,   6.00000000 ,   1.00000000 ,   0.00000000 ,   10.5816809 ,   100.005866 ,  -15.0000000 ,  -15.0000000 ,  -15.0000000
0000000109,   7.00000000 ,   1.00000000 ,   0.00000000 ,   10.5722784 ,   100.005772 ,  -15.0000000 ,  -15.0000000 ,  -15.0000000
0000000110,   8.00000000 ,   1.00000000 ,   0.00000000 ,   10.5629647 ,   100.005678 ,  -15.0000000 ,  -15.0000000 ,  -15.0000000
0000000111,   9.00000000 ,   1.00000000 ,   0.00000000 ,   10.5537387 ,   100.005585 ,  -15.0000000 ,  -15.0000000 ,  -15.0000000
0000000112,   10.0000000 ,   1.00000000 ,   0.00000000 ,   10.5445999 ,   100.005493 ,  -15.0000000 ,  -15.0000000 ,  -15.0000000
0000000113,   11.0000000 ,   1.00000000 ,   0.00000000 ,   10.5355488 ,   100.005402 ,  -15.0000000 ,  -15.0000000 ,  -15.0000000
0000000114,   12.0000000 ,   1.00000000 ,   0.00000000 ,   10.5265853 ,   100.005311 ,  -15.0000000 ,  -15.0000000 ,  -15.0000000
0000000115,   13.0000000 ,   1.00000000 ,   0.00000000 ,   10.5177083 ,   100.005222 ,  -15.0000000 ,  -15.0000000 ,  -15.0000000
0000000116,   14.0000000 ,   1.00000000 ,   0.00000000 ,   10.5089175 ,   100.005133 ,  -15.0000000 ,  -15.0000000 ,  -15.0000000
0000000117,   15.0000000 ,   1.00000000 ,   0.00000000 ,   10.5002136 ,   100.005045 ,  -15.0000000 ,  -15.0000000 ,  -15.0000000
0000000118,   16.0000000 ,   1.00000000 ,   0.00000000 ,   10.4915962 ,   100.004959 ,  -15.0000000 ,  -15.0000000 ,  -15.0000000
0000000119,   17.0000000 ,   1.00000000 ,   0.00000000 ,   10.4830647 ,   100.004873 ,  -15.0000000 ,  -15.0000000 ,  -15.0000000
0000000120,   18.0000000 ,   1.00000000 ,   0.00000000 ,   10.4746185 ,   100.004787 ,  -15.0000000 ,  -15.0000000 ,  -15.0000000
0000000121,   19.0000000 ,   1.00000000 ,   0.00000000 ,   10.4662575 ,   100.004703 ,  -15.0000000 ,  -15.0000000 ,  -15.0000000
0000000122,   20.0000000 ,   1.00000000 ,   0.00000000 ,   10.4579812 ,   100.004620 ,  -15.0000000 ,  -15.0000000 ,  -15.0000000
0000000123,   21.0000000 ,   1.00000000 ,   0.00000000 ,   10.4497892 ,   100.004537 ,  -15.0000000 ,  -15.0000000 ,  -15.0000000
0000000124,   22.0000000 ,   1.00000000 ,   0.00000000 ,   10.4416811 ,   100.004455 ,  -15.0000000 ,  -15.0000000 ,  -15.0000000
0000000125,   23.0000000 ,   1.00000000 ,   0.00000000 ,   10.4336563 ,   100.004375 ,  -15.0000000 ,  -15.0000000 ,  -15.0000000
0000000126,   24.0000000 ,   1.00000000 ,   0.00000000 ,   10.4257142 ,   100.004294 ,  -15.0000000 ,  -15.0000000 ,  -15.0000000
0000000127,   25.0000000 ,   1.00000000 ,   0.00000000 ,   10.4178548 ,   100.004215 ,  -15.0000000 ,  -15.0000000 ,  -15.0000000
0000000128,   26.0000000 ,   1.00000000 ,   0.00000000 ,   10.4100781 ,   100.004137 ,  -15.0000000 ,  -15.0000000 ,  -15.0000000
0000000129,   27.0000000 ,   1.00000000 ,   0.00000000 ,   10.4023840 ,   100.004059 ,  -15.0000000 ,  -15.0000000 ,  -15.0000000
0000000130,   28.0000000 ,   1.00000000 ,   0.00000000 ,   10.3947719 ,   100.003983 ,  -15.0000000 ,  -15.0000000 ,  -15.0000000
0000000131,   29.0000000 ,   1.00000000 ,   0.00000000 ,   10.3872406 ,   100.003907 ,  -15.0000000 ,  -15.0000000 ,  -15.0000000
0000000132,   30.0000000 ,   1.00000000 ,   0.00000000 ,   10.3797892 ,   100.003831 ,  -15.0000000 ,  -15.0000000 ,  -15.0000000
0000000133,   31.0000000 ,   1.00000000 ,   0.00000000 ,   10.3724170 ,   100.003757 ,  -15.0000000 ,  -15.0000000 ,  -15.0000000
0000000134,   32.0000000 ,   1.00000000 ,   0.00000000 ,   10.3651234 ,   100.003684 ,  -15.0000000 ,  -15.0000000 ,  -15.0000000
0000000135,   33.0000000 ,   1.00000000 ,   0.00000000 ,   10.3579079 ,   100.003611 ,  -15.0000000 ,  -15.0000000 ,  -15.0000000
0000000136,   34.0000000 ,   1.00000000 ,   0.00000000 ,   10.3507696 ,   100.003539 ,  -15.0000000 ,  -15.0000000 ,  -15.0000000
0000000137,   35.0000000 ,   1.00000000 ,   0.00000000 ,   10.3437076 ,   100.003468 ,  -15.0000000 ,  -15.0000000 ,  -15.0000000
0000000138,   36.0000000 ,   1.00000000 ,   0.00000000 ,   10.3367209 ,   100.003397 ,  -15.0000000 ,  -15.0000000 ,  -15.0000000
0000000139,   37.0000000 ,   1.00000000 ,   0.00000000 ,   10.3298085 ,   100.003327 ,  -15.0000000 ,  -15.0000000 ,  -15.0000000
0000000140,   38.0000000 ,   1.00000000 ,   0.00000000 ,   10.3229695 ,   100.003259 ,  -15.0000000 ,  -15.0000000 ,  -15.0000000
0000000141,   39.0000000 ,   1.00000000 ,   0.00000000 ,   10.3162031 ,   100.003190 ,  -15.0000000 ,  -15.0000000 ,  -15.0000000
0000000142,   40.0000000 ,   1.00000000 ,   0.00000000 ,   10.3095084 ,   100.003123 ,  -15.0000000 ,  -15.0000000 ,  -15.0000000
0000000143,   41.0000000 ,   1.00000000 ,   0.00000000 ,   10.3028847 ,   100.003056 ,  -15.0000000 ,  -15.0000000 ,  -15.0000000
0000000144,   42.0000000 ,   1.00000000 ,   0.00000000 ,   10.2963312 ,   100.002990 ,  -15.0000000 ,  -15.0000000 ,  -15.0000000
0000000145,   43.0000000 ,   1.00000000 ,   0.00000000 ,   10.2898472 ,   100.002924 ,  -15.0000000 ,  -15.0000000 ,  -15.0000000
0000000146,   44.0000000 ,   1.00000000 ,   0.00000000 ,   10.2834317 ,   100.002860 ,  -15.0000000 ,  -15.0000000 ,  -15.0000000
0000000147,   45.0000000 ,   1.00000000 ,   0.00000000 ,   10.2770840 ,   100.002796 ,  -15.0000000 ,  -15.0000000 ,  -15.0000000
0000000148,   46.0000000 ,   1.00000000 ,   0.00000000 ,   10.2708028 ,   100.002732 ,  -15.0000000 ,  -15.0000000 ,  -15.0000000
0000000149,   47.0000000 ,   1.00000000 ,   0.00000000 ,   10.2645872 ,   100.002670 ,  -15.0000000 ,  -15.0000000 ,  -15.0000000
0000000150,   48.0000000 ,   1.00000000 ,   0.00000000 ,   10.2584358 ,   100.002608 ,  -15.0000000 ,  -15.0000000 ,  -15.0000000
0000000151,   49.0000000 ,   1.00000000 ,   0.00000000 ,   10.2523476 ,   100.002546 ,  -15.0000000 ,  -15.0000000 ,  -15.0000000
0000000152,   50.0000000 ,   1.00000000 ,   0.00000000 ,   10.2463219 ,   100.002485 ,  -15.0000000 ,  -15.0000000 ,  -15.0000000
